#depht/micro s  intensity/ 10^3 V^2/s   f_max/Hz
12.5,93,400
13.0,130,430
13.5,200,500
14.0,207,502
14.5,215,514
15.0,160,490
15.5,160,457
16.0,300,420
16.5,301,380
17.0,190,400
17.5,155,400
18.0,184,390
18.5,196,400
19.0,225,430