#Depht/micro s  intensity/10^3 V^2/s    f_max/Hz
12.5,100,800
13.0,120,860
13.5,200,1020
14.0,235,1092
14.5,260,1185
15.0,350,1206
15.5,370,1225
16.0,400,1020
16.5,390,930
17.0,420,950
17.5,345,980
18.0,320,990
18.5,300,1100
19.0,260,1200